2023-01-05	11:20:58	Data rate [Hz]	10	
Sample Nb.	Measurement time	Voltage	Pressure	Weight
[-]	[s]	[V]	[Pa]	[g]
1.000000	0.099883	3.553520	602288.112978	0.000000
2.000000	0.199755	3.553520	602288.112978	0.000000
3.000000	0.299714	3.553206	602212.537054	0.000000
4.000000	0.399728	3.553520	602288.112978	1185.510000
5.000000	0.499743	3.553206	602212.537054	1185.630000
6.000000	0.599755	3.553206	602212.537054	1185.760000
7.000000	0.699706	3.553311	602237.729029	1185.900000
8.000000	0.799799	3.553415	602262.921003	1186.020000
9.000000	0.899762	3.553624	602313.304952	1186.150000
10.000000	0.999812	3.553206	602212.537054	1186.270000
11.000000	1.099760	3.552893	602136.961131	1186.400000
12.000000	1.199700	3.553102	602187.345080	1186.520000
13.000000	1.299743	3.553206	602212.537054	1186.650000
14.000000	1.399866	3.552997	602162.153105	1186.780000
15.000000	1.499856	3.552893	602136.961131	1186.920000
16.000000	1.599821	3.552788	602111.769156	1187.030000
17.000000	1.699847	3.553206	602212.537054	1187.160000
18.000000	1.799842	3.552893	602136.961131	1187.280000
19.000000	1.899796	3.553311	602237.729029	1187.420000
20.000000	1.999827	3.552684	602086.577182	1187.540000
21.000000	2.099824	3.553415	602262.921003	1187.680000
22.000000	2.199773	3.553311	602237.729029	1187.800000
23.000000	2.299821	3.552997	602162.153105	1187.920000
24.000000	2.399800	3.552997	602162.153105	1188.040000
25.000000	2.499783	3.552579	602061.385207	1188.160000
26.000000	2.599800	3.552788	602111.769156	1188.290000
27.000000	2.699798	3.552893	602136.961131	1188.430000
28.000000	2.799770	3.552684	602086.577182	1188.550000
29.000000	2.899774	3.552475	602036.193233	1188.670000
30.000000	2.999722	3.552475	602036.193233	1188.800000
31.000000	3.099758	3.553102	602187.345080	1188.930000
32.000000	3.199766	3.552997	602162.153105	1189.060000
33.000000	3.299739	3.553206	602212.537054	1189.190000
34.000000	3.399697	3.553206	602212.537054	1189.330000
35.000000	3.499750	3.552475	602036.193233	1189.450000
36.000000	3.599712	3.552684	602086.577182	1189.580000
37.000000	3.699652	3.552370	602011.001258	1189.690000
38.000000	3.799563	3.552788	602111.769156	1189.820000
39.000000	3.899622	3.552579	602061.385207	1189.960000
40.000000	3.999699	3.552684	602086.577182	1190.090000
41.000000	4.099606	3.552579	602061.385207	1190.210000
42.000000	4.199748	3.552475	602036.193233	1190.340000
43.000000	4.299789	3.552475	602036.193233	1190.460000
44.000000	4.399737	3.552684	602086.577182	1190.580000
45.000000	4.499691	3.552684	602086.577182	1190.710000
46.000000	4.599742	3.551952	601910.233360	1190.850000
47.000000	4.699552	3.552475	602036.193233	1190.970000
48.000000	4.799520	3.552057	601935.425334	1191.090000
49.000000	4.899487	3.552161	601960.617309	1191.210000
50.000000	4.999637	3.552370	602011.001258	1191.350000
51.000000	5.099528	3.552475	602036.193233	1191.470000
52.000000	5.199498	3.552266	601985.809284	1191.600000
53.000000	5.299494	3.552057	601935.425334	1191.740000
54.000000	5.399586	3.552684	602086.577182	1191.860000
55.000000	5.499694	3.552370	602011.001258	1191.980000
56.000000	5.599726	3.552475	602036.193233	1192.100000
57.000000	5.699547	3.552161	601960.617309	1192.240000
58.000000	5.799593	3.552266	601985.809284	1192.370000
59.000000	5.899715	3.552266	601985.809284	1192.500000
60.000000	5.999560	3.552057	601935.425334	1192.620000
61.000000	6.099584	3.552266	601985.809284	1192.750000
62.000000	6.199599	3.552266	601985.809284	1192.870000
63.000000	6.299584	3.552161	601960.617309	1193.010000
64.000000	6.399556	3.551743	601859.849411	1193.130000
65.000000	6.499587	3.551952	601910.233360	1193.270000
66.000000	6.599578	3.552161	601960.617309	1193.390000
67.000000	6.699537	3.552161	601960.617309	1193.510000
68.000000	6.799528	3.551743	601859.849411	1193.630000
69.000000	6.899618	3.552475	602036.193233	1193.750000
70.000000	6.999453	3.552370	602011.001258	1193.890000
71.000000	7.099538	3.551639	601834.657436	1194.010000
72.000000	7.199530	3.552370	602011.001258	1194.150000
73.000000	7.299504	3.552266	601985.809284	1194.270000
74.000000	7.399525	3.552266	601985.809284	1194.400000
75.000000	7.499416	3.552266	601985.809284	1194.510000
76.000000	7.599503	3.551848	601885.041385	1194.640000
77.000000	7.699501	3.552684	602086.577182	1194.780000
78.000000	7.799358	3.552161	601960.617309	1194.900000
79.000000	7.899486	3.552057	601935.425334	1195.030000
80.000000	7.999295	3.551743	601859.849411	1195.150000
81.000000	8.099480	3.551848	601885.041385	1195.270000
82.000000	8.199438	3.552161	601960.617309	1195.400000
83.000000	8.299465	3.552161	601960.617309	1195.530000
84.000000	8.399462	3.551743	601859.849411	1195.660000
85.000000	8.499414	3.551848	601885.041385	1195.800000
86.000000	8.599454	3.551952	601910.233360	1195.920000
87.000000	8.699455	3.552057	601935.425334	1196.050000
88.000000	8.799447	3.551848	601885.041385	1196.160000
89.000000	8.899462	3.551743	601859.849411	1196.300000
90.000000	8.999341	3.552161	601960.617309	1196.420000
91.000000	9.099398	3.551325	601759.081513	1196.550000
92.000000	9.199425	3.551952	601910.233360	1196.680000
93.000000	9.299419	3.552475	602036.193233	1196.800000
94.000000	9.399371	3.551743	601859.849411	1196.920000
95.000000	9.499409	3.551848	601885.041385	1197.050000
96.000000	9.599410	3.551743	601859.849411	1197.170000
97.000000	9.699374	3.552161	601960.617309	1197.310000
98.000000	9.799532	3.551430	601784.273487	1197.440000
99.000000	9.899346	3.551639	601834.657436	1197.560000
100.000000	9.999376	3.551639	601834.657436	1197.680000
101.000000	10.099382	3.552266	601985.809284	1197.810000
102.000000	10.199358	3.551325	601759.081513	1197.930000
103.000000	10.299371	3.551639	601834.657436	1198.070000
104.000000	10.399366	3.551743	601859.849411	1198.200000
105.000000	10.499360	3.551325	601759.081513	1198.320000
106.000000	10.599321	3.551116	601708.697564	1198.450000
107.000000	10.699344	3.551848	601885.041385	1198.570000
108.000000	10.799340	3.551534	601809.465462	1198.690000
109.000000	10.899309	3.551952	601910.233360	1198.830000
110.000000	10.999335	3.551325	601759.081513	1198.960000
111.000000	11.099322	3.551743	601859.849411	1199.080000
112.000000	11.199297	3.551221	601733.889538	1199.210000
113.000000	11.299317	3.551011	601683.505589	1199.320000
114.000000	11.399314	3.551430	601784.273487	1199.450000
115.000000	11.499270	3.550698	601607.929665	1199.580000
116.000000	11.599309	3.552057	601935.425334	1199.720000
117.000000	11.699290	3.551325	601759.081513	1199.840000
118.000000	11.799260	3.550907	601658.313615	1199.970000
119.000000	11.899281	3.551221	601733.889538	1200.080000
120.000000	11.999242	3.551011	601683.505589	1200.210000
121.000000	12.099212	3.551325	601759.081513	1200.350000
122.000000	12.199240	3.551325	601759.081513	1200.470000
123.000000	12.299236	3.550698	601607.929665	1200.600000
124.000000	12.399165	3.551116	601708.697564	1200.730000
125.000000	12.499213	3.551011	601683.505589	1200.850000
126.000000	12.599243	3.551325	601759.081513	1200.970000
127.000000	12.699020	3.551325	601759.081513	1201.100000
128.000000	12.799225	3.550802	601633.121640	1201.230000
129.000000	12.899220	3.551011	601683.505589	1201.370000
130.000000	12.999184	3.551221	601733.889538	1201.490000
131.000000	13.099160	3.551011	601683.505589	1201.610000
132.000000	13.199160	3.551325	601759.081513	1201.740000
133.000000	13.299164	3.551116	601708.697564	1201.860000
134.000000	13.399184	3.550802	601633.121640	1201.980000
135.000000	13.499183	3.551116	601708.697564	1202.120000
136.000000	13.599156	3.551325	601759.081513	1202.260000
137.000000	13.699177	3.550698	601607.929665	1202.380000
138.000000	13.799063	3.550907	601658.313615	1202.490000
139.000000	13.899134	3.551011	601683.505589	1202.620000
140.000000	13.998978	3.550698	601607.929665	1202.740000
141.000000	14.098964	3.550489	601557.545716	1202.870000
142.000000	14.199091	3.550593	601582.737691	1203.010000
143.000000	14.299121	3.550802	601633.121640	1203.130000
144.000000	14.398873	3.550280	601507.161767	1203.260000
145.000000	14.499096	3.550384	601532.353742	1203.380000
146.000000	14.599106	3.550489	601557.545716	1203.500000
147.000000	14.699110	3.549862	601406.393869	1203.630000
148.000000	14.799080	3.550489	601557.545716	1203.760000
149.000000	14.899108	3.550698	601607.929665	1203.890000
150.000000	14.999068	3.550384	601532.353742	1204.010000
151.000000	15.099077	3.550593	601582.737691	1204.140000
152.000000	15.199024	3.550802	601633.121640	1204.260000
153.000000	15.299098	3.549862	601406.393869	1204.390000
154.000000	15.399046	3.550489	601557.545716	1204.520000
155.000000	15.499058	3.550071	601456.777818	1204.650000
156.000000	15.599011	3.550071	601456.777818	1204.780000
157.000000	15.699075	3.550175	601481.969793	1204.900000
158.000000	15.799025	3.550280	601507.161767	1205.020000
159.000000	15.898994	3.549862	601406.393869	1205.150000
160.000000	15.999118	3.549966	601431.585844	1205.280000
161.000000	16.099031	3.550071	601456.777818	1205.410000
162.000000	16.198987	3.550907	601658.313615	1205.540000
163.000000	16.298963	3.549757	601381.201895	1205.660000
164.000000	16.398999	3.550071	601456.777818	1205.790000
165.000000	16.499012	3.550175	601481.969793	1205.900000
166.000000	16.599007	3.549757	601381.201895	1206.030000
167.000000	16.698994	3.549548	601330.817946	1206.160000
168.000000	16.798994	3.549444	601305.625971	1206.300000
169.000000	16.898962	3.549757	601381.201895	1206.420000
170.000000	16.998862	3.549966	601431.585844	1206.540000
171.000000	17.098976	3.549757	601381.201895	1206.670000
172.000000	17.198821	3.549757	601381.201895	1206.790000
173.000000	17.298959	3.549339	601280.433996	1206.920000
174.000000	17.398880	3.549444	601305.625971	1207.050000
175.000000	17.498915	3.549235	601255.242022	1207.180000
176.000000	17.598939	3.549339	601280.433996	1207.300000
177.000000	17.698940	3.549339	601280.433996	1207.420000
178.000000	17.798904	3.549235	601255.242022	1207.540000
179.000000	17.898927	3.549339	601280.433996	1207.670000
180.000000	17.998712	3.549548	601330.817946	1207.800000
181.000000	18.098865	3.549653	601356.009920	1207.930000
182.000000	18.198703	3.549235	601255.242022	1208.060000
183.000000	18.298913	3.549339	601280.433996	1208.180000
184.000000	18.398868	3.549235	601255.242022	1208.300000
185.000000	18.498901	3.549026	601204.858073	1208.420000
186.000000	18.598911	3.548921	601179.666098	1208.560000
187.000000	18.698878	3.549548	601330.817946	1208.690000
188.000000	18.798881	3.549339	601280.433996	1208.820000
189.000000	18.898882	3.549130	601230.050047	1208.940000
190.000000	18.998754	3.549444	601305.625971	1209.060000
191.000000	19.098873	3.549235	601255.242022	1209.180000
192.000000	19.198677	3.548921	601179.666098	1209.310000
193.000000	19.298831	3.548817	601154.474124	1209.440000
194.000000	19.398846	3.549339	601280.433996	1209.580000
195.000000	19.498850	3.549235	601255.242022	1209.700000
196.000000	19.598822	3.549026	601204.858073	1209.820000
197.000000	19.698839	3.549235	601255.242022	1209.940000
198.000000	19.798816	3.548921	601179.666098	1210.070000
199.000000	19.898765	3.549130	601230.050047	1210.200000
200.000000	19.998819	3.549235	601255.242022	1210.320000
201.000000	20.098809	3.549026	601204.858073	1210.450000
202.000000	20.198745	3.549235	601255.242022	1210.580000
203.000000	20.298809	3.548921	601179.666098	1210.700000
204.000000	20.398800	3.549339	601280.433996	1210.820000
205.000000	20.498752	3.548503	601078.898200	1210.950000
206.000000	20.598778	3.548503	601078.898200	1211.090000
207.000000	20.698774	3.549235	601255.242022	1211.210000
208.000000	20.798756	3.548921	601179.666098	1211.340000
209.000000	20.898767	3.548817	601154.474124	1211.460000
210.000000	20.998720	3.548817	601154.474124	1211.580000
211.000000	21.098727	3.548817	601154.474124	1211.710000
212.000000	21.198747	3.549130	601230.050047	1211.840000
213.000000	21.298708	3.549026	601204.858073	1211.970000
214.000000	21.398752	3.549026	601204.858073	1212.090000
215.000000	21.498733	3.548712	601129.282149	1212.220000
216.000000	21.598724	3.549026	601204.858073	1212.340000
217.000000	21.698572	3.548712	601129.282149	1212.470000
218.000000	21.798712	3.548608	601104.090175	1212.590000
219.000000	21.898649	3.549235	601255.242022	1212.720000
220.000000	21.998676	3.548608	601104.090175	1212.850000
221.000000	22.098629	3.548921	601179.666098	1212.980000
222.000000	22.198667	3.548712	601129.282149	1213.110000
223.000000	22.298768	3.549130	601230.050047	1213.220000
224.000000	22.398736	3.548503	601078.898200	1213.340000
225.000000	22.498643	3.548085	600978.130302	1213.480000
226.000000	22.598588	3.548399	601053.706226	1213.610000
227.000000	22.698506	3.548921	601179.666098	1213.740000
228.000000	22.798511	3.549026	601204.858073	1213.860000
229.000000	22.898684	3.548190	601003.322277	1213.980000
230.000000	22.998739	3.548503	601078.898200	1214.110000
231.000000	23.098685	3.548921	601179.666098	1214.240000
232.000000	23.198671	3.549235	601255.242022	1214.360000
233.000000	23.298683	3.548608	601104.090175	1214.490000
234.000000	23.398620	3.547771	600902.554378	1214.620000
235.000000	23.498558	3.548921	601179.666098	1214.740000
236.000000	23.598604	3.548712	601129.282149	1214.860000
237.000000	23.698585	3.548085	600978.130302	1214.990000
238.000000	23.798519	3.548294	601028.514251	1215.120000
239.000000	23.898554	3.548712	601129.282149	1215.250000
240.000000	23.998469	3.548503	601078.898200	1215.380000
241.000000	24.098442	3.548294	601028.514251	1215.500000
242.000000	24.198328	3.547876	600927.746353	1215.630000
243.000000	24.298402	3.548608	601104.090175	1215.750000
244.000000	24.398478	3.548190	601003.322277	1215.880000
245.000000	24.498628	3.548085	600978.130302	1216.010000
246.000000	24.598611	3.548712	601129.282149	1216.140000
247.000000	24.698644	3.548294	601028.514251	1216.260000
248.000000	24.798634	3.548294	601028.514251	1216.380000
249.000000	24.898646	3.548503	601078.898200	1216.510000
250.000000	24.998507	3.548503	601078.898200	1216.630000
251.000000	25.098517	3.548608	601104.090175	1216.760000
252.000000	25.198535	3.548190	601003.322277	1216.890000
253.000000	25.298484	3.548399	601053.706226	1217.020000
254.000000	25.398486	3.548294	601028.514251	1217.140000
255.000000	25.498487	3.548294	601028.514251	1217.260000
256.000000	25.598499	3.548190	601003.322277	1217.380000
257.000000	25.698321	3.548294	601028.514251	1217.510000
258.000000	25.798408	3.548503	601078.898200	1217.640000
259.000000	25.898445	3.547981	600952.938328	1217.780000
260.000000	25.998462	3.548085	600978.130302	1217.910000
261.000000	26.098356	3.548190	601003.322277	1218.030000
262.000000	26.198412	3.547981	600952.938328	1218.140000
263.000000	26.298445	3.548399	601053.706226	1218.270000
264.000000	26.398433	3.548294	601028.514251	1218.400000
265.000000	26.498410	3.548399	601053.706226	1218.530000
266.000000	26.598436	3.547981	600952.938328	1218.660000
267.000000	26.698426	3.548085	600978.130302	1218.790000
268.000000	26.798385	3.548190	601003.322277	1218.910000
269.000000	26.898417	3.547771	600902.554378	1219.030000
270.000000	26.998317	3.547771	600902.554378	1219.150000
271.000000	27.098390	3.547771	600902.554378	1219.280000
272.000000	27.198407	3.547981	600952.938328	1219.420000
273.000000	27.298293	3.547876	600927.746353	1219.550000
274.000000	27.398440	3.547981	600952.938328	1219.670000
275.000000	27.498371	3.548085	600978.130302	1219.780000
276.000000	27.598367	3.548085	600978.130302	1219.910000
277.000000	27.698343	3.547876	600927.746353	1220.040000
278.000000	27.798337	3.548085	600978.130302	1220.170000
279.000000	27.898354	3.548294	601028.514251	1220.310000
280.000000	27.998175	3.548085	600978.130302	1220.440000
281.000000	28.098318	3.547667	600877.362404	1220.560000
282.000000	28.198286	3.547562	600852.170429	1220.670000
283.000000	28.298305	3.548085	600978.130302	1220.800000
284.000000	28.398331	3.547458	600826.978455	1220.930000
285.000000	28.498066	3.547144	600751.402531	1221.060000
286.000000	28.598274	3.547458	600826.978455	1221.180000
287.000000	28.698330	3.547458	600826.978455	1221.300000
288.000000	28.798313	3.547667	600877.362404	1221.430000
289.000000	28.898277	3.547771	600902.554378	1221.550000
290.000000	28.998121	3.547562	600852.170429	1221.680000
291.000000	29.098283	3.547667	600877.362404	1221.810000
292.000000	29.198249	3.547458	600826.978455	1221.940000
293.000000	29.298294	3.547562	600852.170429	1222.060000
294.000000	29.398293	3.547353	600801.786480	1222.190000
295.000000	29.498252	3.547667	600877.362404	1222.310000
296.000000	29.598271	3.547562	600852.170429	1222.440000
297.000000	29.698262	3.548294	601028.514251	1222.570000
298.000000	29.798231	3.547040	600726.210557	1222.690000
299.000000	29.898250	3.547562	600852.170429	1222.820000
300.000000	29.998068	3.547771	600902.554378	1222.950000
301.000000	30.098216	3.547144	600751.402531	1223.060000
302.000000	30.198199	3.547667	600877.362404	1223.190000
303.000000	30.298221	3.547249	600776.594506	1223.320000
304.000000	30.398190	3.547144	600751.402531	1223.450000
305.000000	30.498219	3.547562	600852.170429	1223.580000
306.000000	30.598219	3.547458	600826.978455	1223.710000
307.000000	30.698026	3.547562	600852.170429	1223.840000
308.000000	30.798188	3.547249	600776.594506	1223.970000
309.000000	30.898197	3.547458	600826.978455	1224.080000
310.000000	30.998166	3.547040	600726.210557	1224.220000
311.000000	31.098168	3.546726	600650.634633	1224.340000
312.000000	31.198167	3.547249	600776.594506	1224.460000
313.000000	31.298186	3.547458	600826.978455	1224.580000
314.000000	31.398179	3.547040	600726.210557	1224.700000
315.000000	31.498152	3.547144	600751.402531	1224.830000
316.000000	31.598121	3.546831	600675.826608	1224.960000
317.000000	31.698146	3.546726	600650.634633	1225.080000
318.000000	31.798121	3.546831	600675.826608	1225.220000
319.000000	31.898103	3.546622	600625.442659	1225.350000
320.000000	31.998143	3.546308	600549.866735	1225.470000
321.000000	32.098123	3.547040	600726.210557	1225.590000
322.000000	32.198050	3.546413	600575.058709	1225.720000
323.000000	32.298095	3.546622	600625.442659	1225.840000
324.000000	32.398094	3.546831	600675.826608	1225.970000
325.000000	32.498055	3.546726	600650.634633	1226.090000
326.000000	32.598102	3.546726	600650.634633	1226.220000
327.000000	32.698095	3.546726	600650.634633	1226.340000
328.000000	32.798075	3.546935	600701.018582	1226.460000
329.000000	32.898079	3.546517	600600.250684	1226.590000
330.000000	32.997901	3.546726	600650.634633	1226.730000
331.000000	33.098036	3.546517	600600.250684	1226.860000
332.000000	33.198062	3.546204	600524.674760	1226.990000
333.000000	33.298058	3.546099	600499.482786	1227.100000
334.000000	33.398011	3.546413	600575.058709	1227.220000
335.000000	33.498044	3.546204	600524.674760	1227.350000
336.000000	33.598030	3.546308	600549.866735	1227.480000
337.000000	33.697990	3.546204	600524.674760	1227.610000
338.000000	33.798027	3.546204	600524.674760	1227.740000
339.000000	33.898046	3.546517	600600.250684	1227.860000
340.000000	33.997985	3.546413	600575.058709	1227.980000
341.000000	34.097999	3.546413	600575.058709	1228.100000
342.000000	34.197982	3.546204	600524.674760	1228.240000
343.000000	34.297973	3.546413	600575.058709	1228.370000
344.000000	34.397982	3.546308	600549.866735	1228.490000
345.000000	34.497986	3.546099	600499.482786	1228.620000
346.000000	34.597950	3.545890	600449.098837	1228.740000
347.000000	34.697978	3.546099	600499.482786	1228.860000
348.000000	34.797971	3.545681	600398.714888	1228.980000
349.000000	34.897963	3.546204	600524.674760	1229.110000
350.000000	34.997790	3.546099	600499.482786	1229.240000
351.000000	35.097958	3.546413	600575.058709	1229.370000
352.000000	35.197930	3.546308	600549.866735	1229.490000
353.000000	35.297945	3.546099	600499.482786	1229.610000
354.000000	35.397903	3.545890	600449.098837	1229.740000
355.000000	35.497889	3.546099	600499.482786	1229.880000
356.000000	35.597915	3.545890	600449.098837	1230.000000
357.000000	35.697935	3.545995	600474.290811	1230.130000
358.000000	35.797886	3.545995	600474.290811	1230.250000
359.000000	35.897906	3.545577	600373.522913	1230.370000
