2023-01-05	10:57:22	Data rate [Hz]	10	
Sample Nb.	Measurement time	Voltage	Pressure	Weight
[-]	[s]	[V]	[Pa]	[g]
1.000000	0.099990	1.877079	198208.841417	0.000000
2.000000	0.199867	1.877288	198259.225366	102.600000
3.000000	0.299870	1.877706	198359.993265	102.600000
4.000000	0.399956	1.877288	198259.225366	102.620000
5.000000	0.499886	1.877288	198259.225366	0.000000
6.000000	0.599945	1.877079	198208.841417	102.650000
7.000000	0.699856	1.877288	198259.225366	102.680000
8.000000	0.799934	1.877497	198309.609315	102.730000
9.000000	0.899834	1.876765	198133.265494	102.780000
10.000000	0.999891	1.877706	198359.993265	102.840000
11.000000	1.099904	1.877183	198234.033392	102.900000
12.000000	1.199890	1.877079	198208.841417	102.950000
13.000000	1.299889	1.877602	198334.801290	102.990000
14.000000	1.399990	1.877288	198259.225366	103.030000
15.000000	1.499984	1.877079	198208.841417	103.050000
16.000000	1.599927	1.877811	198385.185239	103.080000
17.000000	1.699980	1.877392	198284.417341	103.110000
18.000000	1.799986	1.877288	198259.225366	103.120000
19.000000	1.899951	1.877915	198410.377214	103.150000
20.000000	1.999965	1.877706	198359.993265	103.160000
21.000000	2.099961	1.877811	198385.185239	103.160000
22.000000	2.199928	1.877497	198309.609315	103.160000
23.000000	2.299957	1.877497	198309.609315	103.160000
24.000000	2.399940	1.877183	198234.033392	103.170000
25.000000	2.499909	1.877706	198359.993265	103.190000
26.000000	2.599935	1.877811	198385.185239	103.220000
27.000000	2.699937	1.877706	198359.993265	103.250000
28.000000	2.799893	1.878124	198460.761163	103.290000
29.000000	2.899942	1.877602	198334.801290	103.330000
30.000000	2.999688	1.877602	198334.801290	103.360000
31.000000	3.099712	1.877183	198234.033392	103.390000
32.000000	3.199898	1.877183	198234.033392	103.390000
33.000000	3.299771	1.877602	198334.801290	103.410000
34.000000	3.399855	1.878020	198435.569188	103.420000
35.000000	3.499824	1.877706	198359.993265	103.460000
36.000000	3.599810	1.877602	198334.801290	103.490000
37.000000	3.699797	1.877602	198334.801290	103.530000
38.000000	3.799865	1.878020	198435.569188	103.590000
39.000000	3.899857	1.877706	198359.993265	103.650000
40.000000	3.999816	1.877706	198359.993265	103.700000
41.000000	4.099835	1.877811	198385.185239	103.740000
42.000000	4.199832	1.877915	198410.377214	103.770000
43.000000	4.299819	1.878020	198435.569188	103.770000
44.000000	4.399841	1.878124	198460.761163	103.780000
45.000000	4.499833	1.877915	198410.377214	103.800000
46.000000	4.599629	1.878124	198460.761163	103.820000
47.000000	4.699608	1.877602	198334.801290	103.830000
48.000000	4.799792	1.878333	198511.145112	103.850000
49.000000	4.899664	1.877706	198359.993265	103.880000
50.000000	4.999791	1.877811	198385.185239	103.900000
51.000000	5.099784	1.877602	198334.801290	103.920000
52.000000	5.199735	1.877392	198284.417341	103.950000
53.000000	5.299777	1.877915	198410.377214	103.980000
54.000000	5.399739	1.878229	198485.953137	104.010000
55.000000	5.499735	1.877602	198334.801290	104.030000
56.000000	5.599785	1.877706	198359.993265	104.060000
57.000000	5.699535	1.878124	198460.761163	104.080000
58.000000	5.799723	1.878020	198435.569188	104.100000
59.000000	5.899725	1.877915	198410.377214	104.110000
60.000000	5.999690	1.877811	198385.185239	104.130000
61.000000	6.099691	1.877706	198359.993265	104.150000
62.000000	6.199722	1.878020	198435.569188	104.170000
63.000000	6.299725	1.877706	198359.993265	104.200000
64.000000	6.399652	1.877811	198385.185239	104.220000
65.000000	6.499660	1.877602	198334.801290	104.260000
66.000000	6.599702	1.877288	198259.225366	104.300000
67.000000	6.699662	1.877915	198410.377214	104.340000
68.000000	6.799678	1.878124	198460.761163	104.390000
69.000000	6.899688	1.877497	198309.609315	104.430000
70.000000	6.999642	1.877706	198359.993265	104.480000
71.000000	7.099672	1.877392	198284.417341	104.510000
72.000000	7.199552	1.878229	198485.953137	104.540000
73.000000	7.299624	1.878020	198435.569188	104.570000
74.000000	7.399606	1.878229	198485.953137	104.590000
75.000000	7.499653	1.878124	198460.761163	104.600000
76.000000	7.599450	1.878020	198435.569188	104.620000
77.000000	7.699625	1.878229	198485.953137	104.640000
78.000000	7.799635	1.878333	198511.145112	104.670000
79.000000	7.899595	1.878020	198435.569188	104.690000
80.000000	7.999614	1.877602	198334.801290	104.720000
81.000000	8.099595	1.877602	198334.801290	104.740000
82.000000	8.199565	1.877497	198309.609315	104.740000
83.000000	8.299608	1.877392	198284.417341	104.750000
84.000000	8.399609	1.877706	198359.993265	104.780000
85.000000	8.499573	1.878020	198435.569188	104.780000
86.000000	8.599588	1.878020	198435.569188	104.800000
87.000000	8.699576	1.877706	198359.993265	104.820000
88.000000	8.799553	1.877392	198284.417341	104.850000
89.000000	8.899583	1.877288	198259.225366	104.880000
90.000000	8.999484	1.878020	198435.569188	104.920000
91.000000	9.099486	1.876974	198183.649443	104.950000
92.000000	9.199536	1.876974	198183.649443	104.980000
93.000000	9.299543	1.877602	198334.801290	105.020000
94.000000	9.399499	1.877288	198259.225366	105.050000
95.000000	9.499533	1.877392	198284.417341	105.070000
96.000000	9.599480	1.877183	198234.033392	105.110000
97.000000	9.699499	1.877602	198334.801290	105.150000
98.000000	9.799523	1.877183	198234.033392	105.180000
99.000000	9.899519	1.877183	198234.033392	105.220000
100.000000	9.999502	1.877079	198208.841417	105.250000
101.000000	10.099447	1.876974	198183.649443	105.290000
102.000000	10.199487	1.877288	198259.225366	105.310000
103.000000	10.299487	1.876765	198133.265494	105.310000
104.000000	10.399442	1.877392	198284.417341	105.310000
105.000000	10.499471	1.877183	198234.033392	105.340000
106.000000	10.599462	1.877392	198284.417341	105.350000
107.000000	10.699436	1.877288	198259.225366	105.390000
108.000000	10.799454	1.877183	198234.033392	105.410000
109.000000	10.899466	1.877288	198259.225366	105.450000
110.000000	10.999438	1.877288	198259.225366	105.480000
111.000000	11.099396	1.877079	198208.841417	105.500000
112.000000	11.199431	1.877706	198359.993265	105.500000
113.000000	11.299390	1.876765	198133.265494	105.500000
114.000000	11.399421	1.877183	198234.033392	105.540000
115.000000	11.499428	1.876870	198158.457468	105.560000
116.000000	11.599476	1.877392	198284.417341	105.610000
117.000000	11.699406	1.876870	198158.457468	105.650000
118.000000	11.799302	1.877183	198234.033392	105.690000
119.000000	11.899489	1.877079	198208.841417	105.740000
120.000000	11.999416	1.877497	198309.609315	105.780000
121.000000	12.099374	1.877915	198410.377214	105.810000
122.000000	12.199323	1.878020	198435.569188	105.820000
123.000000	12.299195	1.878020	198435.569188	105.830000
124.000000	12.399370	1.877602	198334.801290	105.830000
125.000000	12.499459	1.877497	198309.609315	105.860000
126.000000	12.599363	1.877706	198359.993265	105.870000
127.000000	12.699316	1.876765	198133.265494	105.880000
128.000000	12.799203	1.877392	198284.417341	105.920000
129.000000	12.899196	1.877288	198259.225366	105.960000
130.000000	12.999369	1.877392	198284.417341	106.000000
131.000000	13.099324	1.877392	198284.417341	106.030000
132.000000	13.199361	1.878229	198485.953137	106.060000
133.000000	13.299400	1.877183	198234.033392	106.080000
134.000000	13.399164	1.877497	198309.609315	106.100000
135.000000	13.499215	1.877602	198334.801290	106.120000
136.000000	13.599236	1.877288	198259.225366	106.150000
137.000000	13.699260	1.877183	198234.033392	106.190000
138.000000	13.799337	1.877811	198385.185239	106.210000
139.000000	13.899105	1.878124	198460.761163	106.240000
140.000000	13.999072	1.877602	198334.801290	106.270000
141.000000	14.099090	1.877706	198359.993265	106.300000
142.000000	14.199063	1.877183	198234.033392	106.340000
143.000000	14.299104	1.877288	198259.225366	106.360000
144.000000	14.399110	1.877915	198410.377214	106.390000
145.000000	14.499191	1.877811	198385.185239	106.410000
146.000000	14.599343	1.877915	198410.377214	106.430000
147.000000	14.699305	1.877706	198359.993265	106.440000
148.000000	14.799307	1.877183	198234.033392	106.470000
149.000000	14.899263	1.877602	198334.801290	106.490000
150.000000	14.999173	1.878438	198536.337086	106.510000
151.000000	15.099192	1.877915	198410.377214	106.540000
152.000000	15.199167	1.878542	198561.529061	106.560000
153.000000	15.299204	1.878124	198460.761163	106.580000
154.000000	15.399215	1.877392	198284.417341	106.590000
155.000000	15.499137	1.878020	198435.569188	106.620000
156.000000	15.599185	1.878124	198460.761163	106.640000
157.000000	15.699125	1.877811	198385.185239	106.680000
158.000000	15.799139	1.877497	198309.609315	106.720000
159.000000	15.899159	1.877392	198284.417341	106.770000
160.000000	15.999166	1.877288	198259.225366	106.810000
161.000000	16.099132	1.877811	198385.185239	106.830000
162.000000	16.199139	1.877706	198359.993265	106.860000
163.000000	16.299139	1.878020	198435.569188	106.880000
164.000000	16.399103	1.878542	198561.529061	106.910000
165.000000	16.499126	1.877602	198334.801290	106.930000
166.000000	16.599100	1.877915	198410.377214	106.960000
167.000000	16.699101	1.878124	198460.761163	106.970000
168.000000	16.799117	1.878020	198435.569188	107.000000
169.000000	16.899065	1.877915	198410.377214	107.030000
170.000000	16.998926	1.877602	198334.801290	107.060000
171.000000	17.099089	1.877288	198259.225366	107.080000
172.000000	17.199077	1.877915	198410.377214	107.090000
173.000000	17.299049	1.877811	198385.185239	107.110000
174.000000	17.399060	1.877915	198410.377214	107.130000
175.000000	17.499065	1.877915	198410.377214	107.150000
176.000000	17.599042	1.877602	198334.801290	107.170000
177.000000	17.699056	1.877706	198359.993265	107.200000
178.000000	17.799070	1.877915	198410.377214	107.240000
179.000000	17.899007	1.877392	198284.417341	107.270000
180.000000	17.998960	1.877079	198208.841417	107.300000
181.000000	18.099049	1.877915	198410.377214	107.330000
182.000000	18.198985	1.877392	198284.417341	107.350000
183.000000	18.299033	1.878020	198435.569188	107.370000
184.000000	18.399028	1.877392	198284.417341	107.390000
185.000000	18.499003	1.877602	198334.801290	107.410000
186.000000	18.598958	1.877288	198259.225366	107.440000
187.000000	18.698954	1.877706	198359.993265	107.480000
188.000000	18.798950	1.877915	198410.377214	107.530000
189.000000	18.898987	1.878333	198511.145112	107.570000
190.000000	18.998995	1.877392	198284.417341	107.590000
191.000000	19.098970	1.878020	198435.569188	107.620000
192.000000	19.198989	1.876974	198183.649443	107.630000
193.000000	19.298975	1.877183	198234.033392	107.650000
194.000000	19.398939	1.877079	198208.841417	107.680000
195.000000	19.498960	1.877392	198284.417341	107.710000
196.000000	19.598968	1.877183	198234.033392	107.750000
197.000000	19.698941	1.877706	198359.993265	107.780000
198.000000	19.798910	1.877183	198234.033392	107.820000
199.000000	19.898937	1.876765	198133.265494	107.840000
200.000000	19.998956	1.877602	198334.801290	107.860000
201.000000	20.098933	1.877288	198259.225366	107.880000
202.000000	20.198926	1.877602	198334.801290	107.900000
203.000000	20.298902	1.877497	198309.609315	107.920000
204.000000	20.398907	1.876974	198183.649443	107.950000
205.000000	20.498946	1.877183	198234.033392	107.970000
206.000000	20.598880	1.877392	198284.417341	108.000000
207.000000	20.698890	1.877079	198208.841417	108.030000
208.000000	20.798897	1.877183	198234.033392	108.060000
209.000000	20.898844	1.876870	198158.457468	108.080000
210.000000	20.998805	1.877602	198334.801290	108.090000
211.000000	21.098864	1.877288	198259.225366	108.090000
212.000000	21.198833	1.877079	198208.841417	108.090000
213.000000	21.298811	1.877706	198359.993265	108.090000
214.000000	21.398834	1.876870	198158.457468	108.090000
215.000000	21.498809	1.877288	198259.225366	108.120000
216.000000	21.598836	1.876974	198183.649443	108.150000
217.000000	21.698830	1.877602	198334.801290	108.200000
218.000000	21.798810	1.877392	198284.417341	108.260000
219.000000	21.898821	1.877497	198309.609315	108.330000
220.000000	21.998836	1.877183	198234.033392	108.390000
221.000000	22.098899	1.877183	198234.033392	108.440000
222.000000	22.198798	1.876556	198082.881545	108.480000
223.000000	22.298792	1.876870	198158.457468	108.510000
224.000000	22.398769	1.877288	198259.225366	108.530000
225.000000	22.498735	1.877811	198385.185239	108.540000
226.000000	22.598798	1.877288	198259.225366	108.570000
227.000000	22.698760	1.877079	198208.841417	108.590000
228.000000	22.798770	1.877183	198234.033392	108.620000
229.000000	22.898781	1.877392	198284.417341	108.640000
230.000000	22.998751	1.877602	198334.801290	108.670000
231.000000	23.098768	1.877288	198259.225366	108.680000
232.000000	23.198754	1.876974	198183.649443	108.690000
233.000000	23.298716	1.877392	198284.417341	108.700000
234.000000	23.398742	1.877392	198284.417341	108.710000
235.000000	23.498680	1.877392	198284.417341	108.730000
236.000000	23.598712	1.877706	198359.993265	108.750000
237.000000	23.698736	1.877811	198385.185239	108.770000
238.000000	23.798725	1.877602	198334.801290	108.800000
239.000000	23.898677	1.877497	198309.609315	108.820000
240.000000	23.998619	1.877497	198309.609315	108.830000
241.000000	24.098703	1.878229	198485.953137	108.830000
242.000000	24.198594	1.877288	198259.225366	108.860000
243.000000	24.298708	1.877915	198410.377214	108.870000
244.000000	24.398696	1.877706	198359.993265	108.900000
245.000000	24.498651	1.877288	198259.225366	108.930000
246.000000	24.598677	1.878020	198435.569188	108.990000
247.000000	24.698685	1.877288	198259.225366	109.060000
248.000000	24.798643	1.877392	198284.417341	109.130000
249.000000	24.898640	1.877497	198309.609315	109.190000
250.000000	24.998640	1.878124	198460.761163	109.240000
251.000000	25.098613	1.877602	198334.801290	109.270000
252.000000	25.198591	1.877288	198259.225366	109.280000
253.000000	25.298585	1.878124	198460.761163	109.280000
254.000000	25.398603	1.877915	198410.377214	109.280000
255.000000	25.498577	1.878020	198435.569188	109.290000
256.000000	25.598572	1.877706	198359.993265	109.310000
257.000000	25.698592	1.877602	198334.801290	109.330000
258.000000	25.798603	1.877392	198284.417341	109.360000
259.000000	25.898576	1.877811	198385.185239	109.390000
260.000000	25.998509	1.878542	198561.529061	109.420000
261.000000	26.098592	1.878124	198460.761163	109.440000
262.000000	26.198565	1.878333	198511.145112	109.440000
263.000000	26.298580	1.877392	198284.417341	109.470000
264.000000	26.398575	1.877811	198385.185239	109.480000
265.000000	26.498563	1.877706	198359.993265	109.500000
266.000000	26.598507	1.877497	198309.609315	109.530000
267.000000	26.698632	1.878124	198460.761163	109.550000
268.000000	26.798547	1.877915	198410.377214	109.580000
269.000000	26.898473	1.877915	198410.377214	109.610000
270.000000	26.998495	1.878020	198435.569188	109.630000
271.000000	27.098521	1.877392	198284.417341	109.650000
272.000000	27.198497	1.877706	198359.993265	109.670000
273.000000	27.298511	1.877288	198259.225366	109.710000
274.000000	27.398525	1.877288	198259.225366	109.760000
275.000000	27.498459	1.877497	198309.609315	109.810000
276.000000	27.598516	1.877288	198259.225366	109.860000
277.000000	27.698485	1.877706	198359.993265	109.910000
278.000000	27.798486	1.877811	198385.185239	109.940000
279.000000	27.898491	1.877602	198334.801290	109.960000
280.000000	27.998481	1.877392	198284.417341	109.980000
281.000000	28.098440	1.877079	198208.841417	109.990000
282.000000	28.198414	1.877183	198234.033392	110.000000
283.000000	28.298451	1.877497	198309.609315	110.020000
284.000000	28.398423	1.877602	198334.801290	110.030000
285.000000	28.498402	1.877392	198284.417341	110.060000
286.000000	28.598484	1.876870	198158.457468	110.100000
287.000000	28.698423	1.877497	198309.609315	110.130000
288.000000	28.798435	1.876765	198133.265494	110.160000
289.000000	28.898424	1.877392	198284.417341	110.190000
290.000000	28.998401	1.877706	198359.993265	110.220000
291.000000	29.098420	1.876974	198183.649443	110.230000
292.000000	29.198423	1.877288	198259.225366	110.250000
293.000000	29.298371	1.877288	198259.225366	110.260000
294.000000	29.398397	1.877602	198334.801290	110.280000
295.000000	29.498390	1.877183	198234.033392	110.280000
296.000000	29.598335	1.876870	198158.457468	110.290000
297.000000	29.698373	1.877288	198259.225366	110.300000
298.000000	29.798325	1.877288	198259.225366	110.330000
299.000000	29.898338	1.877497	198309.609315	110.350000
300.000000	29.998341	1.877392	198284.417341	110.390000
301.000000	30.098312	1.877497	198309.609315	110.440000
302.000000	30.198312	1.877392	198284.417341	110.490000
303.000000	30.298208	1.876870	198158.457468	110.540000
304.000000	30.398333	1.877602	198334.801290	110.590000
305.000000	30.498313	1.877392	198284.417341	110.630000
306.000000	30.598328	1.876974	198183.649443	110.660000
307.000000	30.698288	1.877183	198234.033392	110.700000
308.000000	30.798284	1.877079	198208.841417	110.720000
309.000000	30.898313	1.877079	198208.841417	110.730000
310.000000	30.998295	1.876974	198183.649443	110.740000
311.000000	31.098271	1.877288	198259.225366	110.770000
312.000000	31.198281	1.877288	198259.225366	110.780000
313.000000	31.298284	1.877183	198234.033392	110.820000
314.000000	31.398236	1.876974	198183.649443	110.860000
315.000000	31.498268	1.877497	198309.609315	110.890000
316.000000	31.598246	1.877079	198208.841417	110.920000
317.000000	31.698188	1.877183	198234.033392	110.920000
318.000000	31.798233	1.877183	198234.033392	110.920000
319.000000	31.898212	1.877602	198334.801290	110.920000
320.000000	31.998240	1.877183	198234.033392	110.930000
321.000000	32.098277	1.876765	198133.265494	110.950000
322.000000	32.198272	1.877079	198208.841417	110.970000
323.000000	32.298225	1.877602	198334.801290	110.990000
324.000000	32.398219	1.877497	198309.609315	111.020000
325.000000	32.498139	1.877392	198284.417341	111.050000
326.000000	32.598166	1.877392	198284.417341	111.090000
327.000000	32.698279	1.877183	198234.033392	111.130000
328.000000	32.798203	1.877497	198309.609315	111.170000
329.000000	32.898144	1.876974	198183.649443	111.210000
330.000000	32.998055	1.877392	198284.417341	111.240000
331.000000	33.098082	1.877706	198359.993265	111.280000
332.000000	33.198008	1.877497	198309.609315	111.330000
333.000000	33.298050	1.877497	198309.609315	111.370000
334.000000	33.398018	1.877497	198309.609315	111.410000
335.000000	33.498140	1.877183	198234.033392	111.450000
336.000000	33.598203	1.877288	198259.225366	111.460000
337.000000	33.698257	1.877602	198334.801290	111.470000
338.000000	33.798217	1.877706	198359.993265	111.470000
339.000000	33.898261	1.878124	198460.761163	111.470000
340.000000	33.998253	1.877392	198284.417341	111.500000
341.000000	34.098104	1.877497	198309.609315	111.520000
342.000000	34.198125	1.877497	198309.609315	111.550000
343.000000	34.298110	1.877706	198359.993265	111.580000
344.000000	34.398096	1.877915	198410.377214	111.610000
345.000000	34.498097	1.877497	198309.609315	111.640000
346.000000	34.597923	1.877183	198234.033392	111.640000
347.000000	34.698081	1.877915	198410.377214	111.640000
348.000000	34.798097	1.877288	198259.225366	111.650000
349.000000	34.898049	1.877706	198359.993265	111.680000
350.000000	34.998014	1.878124	198460.761163	111.690000
351.000000	35.098089	1.877915	198410.377214	111.720000
352.000000	35.198090	1.877183	198234.033392	111.770000
353.000000	35.298033	1.877392	198284.417341	111.820000
354.000000	35.398067	1.877706	198359.993265	111.870000
355.000000	35.497992	1.877497	198309.609315	111.910000
356.000000	35.598017	1.876974	198183.649443	111.950000
357.000000	35.697926	1.877079	198208.841417	111.970000
358.000000	35.798027	1.877706	198359.993265	111.990000
359.000000	35.897983	1.877392	198284.417341	112.020000
360.000000	35.997980	1.877706	198359.993265	112.050000
361.000000	36.098030	1.877602	198334.801290	112.080000
362.000000	36.198005	1.877915	198410.377214	112.110000
363.000000	36.298017	1.877602	198334.801290	112.140000
364.000000	36.398010	1.877079	198208.841417	112.150000
365.000000	36.497971	1.877288	198259.225366	112.180000
