2023-02-05	09:23:49	Data rate [Hz]	10	
Sample Nb.	Measurement time	Voltage	Pressure	Weight
[-]	[s]	[V]	[Pa]	[g]
1.000000	0.099985	1.888158	200879.190718	0.000000
2.000000	0.200023	1.888680	201005.150591	0.000000
3.000000	0.299988	1.887635	200753.230845	4.130000
4.000000	0.399942	1.888471	200954.766642	4.130000
5.000000	0.499916	1.887949	200828.806769	4.130000
6.000000	0.600018	1.887426	200702.846896	4.130000
7.000000	0.699942	1.887740	200778.422820	4.130000
8.000000	0.800043	1.888053	200853.998744	4.130000
9.000000	0.900009	1.887844	200803.614795	4.130000
10.000000	0.999927	1.887740	200778.422820	4.130000
11.000000	1.099975	1.887844	200803.614795	4.140000
12.000000	1.199943	1.887949	200828.806769	4.140000
13.000000	1.299962	1.887635	200753.230845	4.140000
14.000000	1.399912	1.888053	200853.998744	4.140000
15.000000	1.499911	1.888158	200879.190718	4.140000
16.000000	1.599944	1.888367	200929.574667	4.140000
17.000000	1.699967	1.887740	200778.422820	4.140000
18.000000	1.799920	1.888367	200929.574667	4.140000
19.000000	1.899948	1.887949	200828.806769	4.140000
20.000000	1.999927	1.887531	200728.038871	4.140000
21.000000	2.099893	1.888053	200853.998744	4.140000
22.000000	2.199881	1.888158	200879.190718	4.140000
23.000000	2.299942	1.888785	201030.342565	4.140000
24.000000	2.399857	1.887635	200753.230845	4.140000
25.000000	2.499966	1.888367	200929.574667	4.140000
26.000000	2.599819	1.888053	200853.998744	4.140000
27.000000	2.699819	1.888471	200954.766642	4.140000
28.000000	2.799833	1.887844	200803.614795	4.140000
29.000000	2.899847	1.887949	200828.806769	4.140000
30.000000	2.999922	1.888053	200853.998744	4.140000
31.000000	3.099867	1.888053	200853.998744	4.140000
32.000000	3.199818	1.888262	200904.382693	4.140000
33.000000	3.299807	1.887844	200803.614795	4.140000
34.000000	3.399786	1.888576	200979.958616	4.140000
35.000000	3.499847	1.888367	200929.574667	4.140000
36.000000	3.599848	1.887740	200778.422820	4.140000
37.000000	3.699849	1.887635	200753.230845	4.140000
38.000000	3.799806	1.887844	200803.614795	4.140000
39.000000	3.899768	1.888367	200929.574667	4.140000
40.000000	3.999790	1.887635	200753.230845	4.140000
41.000000	4.099795	1.887740	200778.422820	4.140000
42.000000	4.199796	1.887740	200778.422820	4.140000
43.000000	4.299727	1.887844	200803.614795	4.140000
44.000000	4.399720	1.887949	200828.806769	4.140000
45.000000	4.499801	1.887217	200652.462947	4.140000
46.000000	4.599780	1.888367	200929.574667	4.140000
47.000000	4.699774	1.887844	200803.614795	4.140000
48.000000	4.799747	1.888471	200954.766642	4.160000
49.000000	4.899738	1.887426	200702.846896	4.180000
50.000000	4.999700	1.887740	200778.422820	4.190000
51.000000	5.099703	1.887949	200828.806769	4.200000
52.000000	5.199704	1.887949	200828.806769	4.200000
53.000000	5.299703	1.888471	200954.766642	4.200000
54.000000	5.399714	1.888262	200904.382693	4.200000
55.000000	5.499674	1.888158	200879.190718	4.210000
56.000000	5.599705	1.887635	200753.230845	4.210000
57.000000	5.699688	1.888158	200879.190718	4.210000
58.000000	5.799624	1.887635	200753.230845	4.210000
59.000000	5.899679	1.888053	200853.998744	4.210000
60.000000	5.999685	1.887949	200828.806769	4.210000
61.000000	6.099667	1.887531	200728.038871	4.210000
62.000000	6.199672	1.888053	200853.998744	4.210000
63.000000	6.299685	1.888158	200879.190718	4.220000
64.000000	6.399662	1.887322	200677.654922	4.220000
65.000000	6.499723	1.887844	200803.614795	4.220000
66.000000	6.599668	1.887635	200753.230845	4.220000
67.000000	6.699652	1.888053	200853.998744	4.220000
68.000000	6.799642	1.887844	200803.614795	4.220000
69.000000	6.899621	1.887531	200728.038871	4.220000
70.000000	6.999633	1.888158	200879.190718	4.230000
71.000000	7.099613	1.887635	200753.230845	4.230000
72.000000	7.199616	1.887949	200828.806769	4.230000
73.000000	7.299646	1.888158	200879.190718	4.230000
74.000000	7.399603	1.888053	200853.998744	4.230000
75.000000	7.499589	1.888158	200879.190718	4.230000
76.000000	7.599557	1.888053	200853.998744	4.230000
77.000000	7.699603	1.888785	201030.342565	4.230000
78.000000	7.799610	1.887217	200652.462947	4.230000
79.000000	7.899576	1.888053	200853.998744	4.230000
80.000000	7.999536	1.888680	201005.150591	4.230000
81.000000	8.099553	1.887949	200828.806769	4.230000
82.000000	8.199527	1.887949	200828.806769	4.230000
83.000000	8.299479	1.888262	200904.382693	4.230000
84.000000	8.399600	1.888471	200954.766642	4.240000
85.000000	8.499433	1.888053	200853.998744	4.240000
86.000000	8.599521	1.888262	200904.382693	4.240000
87.000000	8.699530	1.888053	200853.998744	4.240000
88.000000	8.799464	1.888471	200954.766642	4.240000
89.000000	8.899404	1.888053	200853.998744	4.240000
90.000000	8.999459	1.888367	200929.574667	4.240000
91.000000	9.099470	1.887635	200753.230845	4.240000
92.000000	9.199474	1.887531	200728.038871	4.240000
93.000000	9.299539	1.887426	200702.846896	4.240000
94.000000	9.399426	1.888262	200904.382693	4.240000
95.000000	9.499377	1.888367	200929.574667	4.240000
96.000000	9.599418	1.888367	200929.574667	4.240000
97.000000	9.699455	1.888262	200904.382693	4.240000
98.000000	9.799442	1.888053	200853.998744	4.240000
99.000000	9.899437	1.888158	200879.190718	4.240000
100.000000	9.999430	1.887740	200778.422820	4.240000
101.000000	10.099396	1.888471	200954.766642	4.240000
102.000000	10.199348	1.888367	200929.574667	4.240000
103.000000	10.299435	1.888262	200904.382693	4.240000
104.000000	10.399371	1.887844	200803.614795	4.240000
105.000000	10.499351	1.888367	200929.574667	4.240000
106.000000	10.599420	1.887531	200728.038871	4.240000
107.000000	10.699371	1.888053	200853.998744	4.240000
108.000000	10.799337	1.887635	200753.230845	4.240000
109.000000	10.899394	1.888367	200929.574667	4.240000
110.000000	10.999289	1.887844	200803.614795	4.240000
111.000000	11.099396	1.888262	200904.382693	4.240000
112.000000	11.199295	1.888367	200929.574667	4.240000
113.000000	11.299326	1.887531	200728.038871	4.240000
114.000000	11.399390	1.888471	200954.766642	4.240000
115.000000	11.499353	1.888262	200904.382693	4.240000
116.000000	11.599322	1.888471	200954.766642	4.240000
117.000000	11.699303	1.888785	201030.342565	4.250000
118.000000	11.799301	1.887949	200828.806769	4.250000
119.000000	11.899308	1.887844	200803.614795	4.250000
120.000000	11.999261	1.887949	200828.806769	4.250000
121.000000	12.099268	1.888367	200929.574667	4.250000
122.000000	12.199361	1.887844	200803.614795	4.250000
123.000000	12.299305	1.888680	201005.150591	4.250000
124.000000	12.399281	1.887844	200803.614795	4.250000
125.000000	12.499295	1.888576	200979.958616	4.250000
126.000000	12.599273	1.888576	200979.958616	4.250000
127.000000	12.699235	1.888367	200929.574667	4.250000
128.000000	12.799289	1.888680	201005.150591	4.250000
129.000000	12.899285	1.888158	200879.190718	4.250000
130.000000	12.999245	1.888367	200929.574667	4.250000
131.000000	13.099213	1.888471	200954.766642	4.250000
132.000000	13.199212	1.888680	201005.150591	4.250000
133.000000	13.299246	1.888680	201005.150591	4.250000
134.000000	13.399234	1.887531	200728.038871	4.250000
135.000000	13.499232	1.888053	200853.998744	4.250000
136.000000	13.599202	1.888785	201030.342565	4.250000
137.000000	13.699243	1.888158	200879.190718	4.250000
138.000000	13.799182	1.887635	200753.230845	4.250000
139.000000	13.899224	1.888367	200929.574667	4.250000
140.000000	13.999162	1.887949	200828.806769	4.250000
141.000000	14.099187	1.888367	200929.574667	4.250000
142.000000	14.199143	1.888262	200904.382693	4.250000
143.000000	14.299148	1.888053	200853.998744	4.260000
144.000000	14.399083	1.887740	200778.422820	4.260000
145.000000	14.499107	1.888158	200879.190718	4.260000
146.000000	14.599141	1.887844	200803.614795	4.260000
147.000000	14.699177	1.888576	200979.958616	4.260000
148.000000	14.799179	1.888576	200979.958616	4.300000
149.000000	14.899089	1.887844	200803.614795	4.310000
150.000000	14.999182	1.888262	200904.382693	4.320000
151.000000	15.099109	1.887740	200778.422820	4.350000
152.000000	15.199162	1.888367	200929.574667	4.370000
153.000000	15.299132	1.888471	200954.766642	4.390000
154.000000	15.399074	1.888785	201030.342565	4.400000
155.000000	15.499063	1.888680	201005.150591	4.400000
156.000000	15.599117	1.888576	200979.958616	4.400000
157.000000	15.699101	1.888680	201005.150591	4.410000
158.000000	15.799153	1.888471	200954.766642	4.410000
159.000000	15.899083	1.888680	201005.150591	4.410000
160.000000	15.998991	1.888994	201080.726514	4.410000
161.000000	16.099012	1.888262	200904.382693	4.410000
162.000000	16.199054	1.887740	200778.422820	4.410000
163.000000	16.299064	1.888785	201030.342565	4.410000
164.000000	16.399005	1.888367	200929.574667	4.410000
165.000000	16.499057	1.887635	200753.230845	4.410000
166.000000	16.598999	1.889098	201105.918489	4.410000
167.000000	16.699034	1.888367	200929.574667	4.410000
168.000000	16.799036	1.888158	200879.190718	4.410000
169.000000	16.898991	1.888053	200853.998744	4.410000
170.000000	16.999032	1.888367	200929.574667	4.410000
171.000000	17.099050	1.888576	200979.958616	4.410000
172.000000	17.198929	1.887635	200753.230845	4.410000
173.000000	17.298951	1.888053	200853.998744	4.410000
174.000000	17.398924	1.888785	201030.342565	4.410000
175.000000	17.499010	1.888785	201030.342565	4.410000
176.000000	17.598983	1.888471	200954.766642	4.410000
177.000000	17.698902	1.887949	200828.806769	4.410000
178.000000	17.798892	1.888158	200879.190718	4.410000
179.000000	17.898946	1.888053	200853.998744	4.410000
180.000000	17.998969	1.888262	200904.382693	4.410000
181.000000	18.098973	1.888576	200979.958616	4.410000
182.000000	18.198872	1.887635	200753.230845	4.410000
183.000000	18.298917	1.888158	200879.190718	4.410000
184.000000	18.398934	1.888889	201055.534540	4.410000
185.000000	18.498931	1.888367	200929.574667	4.410000
186.000000	18.598933	1.888576	200979.958616	4.410000
187.000000	18.698962	1.888576	200979.958616	4.410000
188.000000	18.798884	1.888262	200904.382693	4.410000
189.000000	18.898866	1.887740	200778.422820	4.410000
190.000000	18.998904	1.887844	200803.614795	4.410000
191.000000	19.098864	1.888367	200929.574667	4.410000
192.000000	19.198852	1.888158	200879.190718	4.410000
193.000000	19.298831	1.888262	200904.382693	4.420000
194.000000	19.398840	1.887740	200778.422820	4.420000
195.000000	19.498916	1.887949	200828.806769	4.420000
196.000000	19.598809	1.887949	200828.806769	4.420000
197.000000	19.698809	1.888471	200954.766642	4.420000
198.000000	19.798876	1.888262	200904.382693	4.420000
199.000000	19.898887	1.888889	201055.534540	4.420000
200.000000	19.998797	1.888367	200929.574667	4.420000
201.000000	20.098788	1.888367	200929.574667	4.420000
202.000000	20.198792	1.888053	200853.998744	4.420000
203.000000	20.298810	1.888367	200929.574667	4.420000
204.000000	20.398734	1.888576	200979.958616	4.420000
205.000000	20.498729	1.887740	200778.422820	4.420000
206.000000	20.598812	1.888262	200904.382693	4.420000
207.000000	20.698807	1.888053	200853.998744	4.420000
208.000000	20.798755	1.888158	200879.190718	4.420000
209.000000	20.898757	1.887008	200602.078998	4.420000
210.000000	20.998730	1.887844	200803.614795	4.420000
211.000000	21.098745	1.887322	200677.654922	4.420000
212.000000	21.198760	1.887322	200677.654922	4.420000
213.000000	21.298685	1.888367	200929.574667	4.430000
214.000000	21.398716	1.888471	200954.766642	4.430000
215.000000	21.498694	1.887531	200728.038871	4.430000
216.000000	21.598748	1.887426	200702.846896	4.430000
217.000000	21.698659	1.887844	200803.614795	4.430000
218.000000	21.798690	1.888262	200904.382693	4.430000
219.000000	21.898689	1.888158	200879.190718	4.430000
220.000000	21.998619	1.887949	200828.806769	4.430000
221.000000	22.098656	1.888053	200853.998744	4.430000
222.000000	22.198721	1.887635	200753.230845	4.430000
223.000000	22.298681	1.888158	200879.190718	4.430000
224.000000	22.398605	1.887008	200602.078998	4.430000
225.000000	22.498651	1.887949	200828.806769	4.430000
226.000000	22.598608	1.887949	200828.806769	4.430000
227.000000	22.698646	1.888262	200904.382693	4.430000
228.000000	22.798625	1.887740	200778.422820	4.430000
229.000000	22.898695	1.888471	200954.766642	4.440000
230.000000	22.998668	1.887635	200753.230845	4.440000
231.000000	23.098618	1.887740	200778.422820	4.440000
232.000000	23.198581	1.887426	200702.846896	4.440000
233.000000	23.298598	1.887844	200803.614795	4.440000
234.000000	23.398891	1.887635	200753.230845	4.440000
235.000000	23.498561	1.888262	200904.382693	4.440000
236.000000	23.598640	1.888053	200853.998744	4.440000
237.000000	23.698568	1.887949	200828.806769	4.440000
238.000000	23.798569	1.887217	200652.462947	4.440000
239.000000	23.898599	1.887322	200677.654922	4.440000
240.000000	23.998564	1.887322	200677.654922	4.440000
241.000000	24.098593	1.887949	200828.806769	4.440000
242.000000	24.198493	1.887844	200803.614795	4.440000
243.000000	24.298568	1.887322	200677.654922	4.440000
244.000000	24.398561	1.887635	200753.230845	4.440000
245.000000	24.498488	1.887217	200652.462947	4.440000
246.000000	24.598491	1.887531	200728.038871	4.440000
247.000000	24.698513	1.887949	200828.806769	4.450000
248.000000	24.798537	1.887531	200728.038871	4.450000
249.000000	24.898509	1.887740	200778.422820	4.450000
250.000000	24.998454	1.887112	200627.270973	4.450000
251.000000	25.098493	1.887635	200753.230845	4.450000
252.000000	25.198453	1.888053	200853.998744	4.470000
253.000000	25.298452	1.887635	200753.230845	4.480000
254.000000	25.398529	1.887531	200728.038871	4.500000
255.000000	25.498411	1.887949	200828.806769	4.520000
256.000000	25.598429	1.887008	200602.078998	4.540000
257.000000	25.698528	1.886799	200551.695049	4.560000
258.000000	25.798435	1.888053	200853.998744	4.580000
259.000000	25.898509	1.887112	200627.270973	4.600000
260.000000	25.998508	1.887844	200803.614795	4.600000
261.000000	26.098407	1.887635	200753.230845	4.610000
262.000000	26.198418	1.887635	200753.230845	4.610000
263.000000	26.298474	1.887322	200677.654922	4.610000
264.000000	26.398435	1.887426	200702.846896	4.610000
265.000000	26.498352	1.887531	200728.038871	4.610000
266.000000	26.598432	1.887426	200702.846896	4.610000
267.000000	26.698438	1.887844	200803.614795	4.610000
268.000000	26.798416	1.887217	200652.462947	4.610000
269.000000	26.898437	1.887322	200677.654922	4.610000
270.000000	26.998374	1.886799	200551.695049	4.610000
271.000000	27.098356	1.887217	200652.462947	4.620000
272.000000	27.198321	1.887217	200652.462947	4.620000
273.000000	27.298320	1.887112	200627.270973	4.620000
274.000000	27.398320	1.887217	200652.462947	4.620000
275.000000	27.498338	1.887322	200677.654922	4.620000
276.000000	27.598352	1.887217	200652.462947	4.620000
277.000000	27.698393	1.887008	200602.078998	4.620000
278.000000	27.798340	1.887740	200778.422820	4.620000
279.000000	27.898357	1.887008	200602.078998	4.620000
280.000000	27.998362	1.886903	200576.887024	4.620000
281.000000	28.098326	1.887531	200728.038871	4.620000
282.000000	28.198362	1.887635	200753.230845	4.620000
283.000000	28.298408	1.887112	200627.270973	4.620000
284.000000	28.398349	1.887322	200677.654922	4.620000
285.000000	28.498309	1.886590	200501.311100	4.620000
286.000000	28.598285	1.887008	200602.078998	4.620000
287.000000	28.698315	1.887531	200728.038871	4.620000
288.000000	28.798336	1.886590	200501.311100	4.620000
289.000000	28.898282	1.887217	200652.462947	4.620000
290.000000	28.998320	1.887322	200677.654922	4.620000
291.000000	29.098321	1.887112	200627.270973	4.620000
292.000000	29.198291	1.886381	200450.927151	4.620000
293.000000	29.298234	1.886485	200476.119126	4.620000
294.000000	29.398272	1.886485	200476.119126	4.620000
295.000000	29.498234	1.887426	200702.846896	4.620000
296.000000	29.598279	1.886590	200501.311100	4.620000
297.000000	29.698204	1.887008	200602.078998	4.620000
298.000000	29.798232	1.887531	200728.038871	4.620000
299.000000	29.898271	1.887217	200652.462947	4.620000
300.000000	29.998267	1.886799	200551.695049	4.620000
301.000000	30.098358	1.887217	200652.462947	4.620000
302.000000	30.198271	1.886590	200501.311100	4.620000
303.000000	30.298174	1.887112	200627.270973	4.620000
304.000000	30.398187	1.887217	200652.462947	4.620000
305.000000	30.498206	1.886903	200576.887024	4.620000
306.000000	30.598210	1.886590	200501.311100	4.620000
307.000000	30.698134	1.887008	200602.078998	4.620000
308.000000	30.798153	1.886590	200501.311100	4.620000
309.000000	30.898150	1.886903	200576.887024	4.620000
310.000000	30.998141	1.886799	200551.695049	4.620000
311.000000	31.098136	1.887008	200602.078998	4.620000
312.000000	31.198112	1.887217	200652.462947	4.620000
313.000000	31.298122	1.887949	200828.806769	4.620000
314.000000	31.398101	1.886694	200526.503075	4.620000
315.000000	31.498160	1.886799	200551.695049	4.620000
316.000000	31.598137	1.886381	200450.927151	4.620000
317.000000	31.698089	1.887217	200652.462947	4.620000
318.000000	31.798105	1.887112	200627.270973	4.620000
319.000000	31.898145	1.887112	200627.270973	4.620000
320.000000	31.998139	1.887008	200602.078998	4.620000
321.000000	32.098104	1.887531	200728.038871	4.620000
322.000000	32.198060	1.886903	200576.887024	4.620000
323.000000	32.298117	1.887008	200602.078998	4.620000
324.000000	32.398119	1.887217	200652.462947	4.620000
325.000000	32.498065	1.886694	200526.503075	4.620000
326.000000	32.598026	1.886381	200450.927151	4.620000
327.000000	32.698071	1.886694	200526.503075	4.620000
328.000000	32.798069	1.887426	200702.846896	4.620000
329.000000	32.898083	1.886694	200526.503075	4.620000
330.000000	32.998096	1.887008	200602.078998	4.620000
331.000000	33.098099	1.886590	200501.311100	4.620000
332.000000	33.198026	1.886381	200450.927151	4.620000
333.000000	33.298079	1.887112	200627.270973	4.620000
334.000000	33.397985	1.887008	200602.078998	4.620000
335.000000	33.498030	1.886590	200501.311100	4.620000
336.000000	33.598004	1.886485	200476.119126	4.620000
337.000000	33.697993	1.887217	200652.462947	4.630000
338.000000	33.798035	1.886694	200526.503075	4.630000
339.000000	33.898028	1.886903	200576.887024	4.630000
340.000000	33.997960	1.887008	200602.078998	4.630000
341.000000	34.098006	1.886799	200551.695049	4.630000
342.000000	34.198002	1.886485	200476.119126	4.630000
343.000000	34.297926	1.886903	200576.887024	4.630000
344.000000	34.397975	1.886799	200551.695049	4.630000
345.000000	34.497916	1.886903	200576.887024	4.630000
346.000000	34.597955	1.887635	200753.230845	4.630000
347.000000	34.697897	1.886590	200501.311100	4.630000
348.000000	34.797951	1.887112	200627.270973	4.630000
349.000000	34.897981	1.886590	200501.311100	4.630000
350.000000	34.997972	1.886381	200450.927151	4.630000
351.000000	35.097932	1.886485	200476.119126	4.630000
352.000000	35.197888	1.886172	200400.543202	4.630000
353.000000	35.297865	1.886485	200476.119126	4.630000
354.000000	35.397927	1.886276	200425.735176	4.630000
355.000000	35.497898	1.887008	200602.078998	4.630000
356.000000	35.597894	1.886799	200551.695049	4.630000
357.000000	35.697873	1.886590	200501.311100	4.630000
358.000000	35.797831	1.887112	200627.270973	4.670000
359.000000	35.897852	1.887322	200677.654922	4.680000
360.000000	35.997785	1.886381	200450.927151	4.690000
361.000000	36.097788	1.886694	200526.503075	4.700000
362.000000	36.197860	1.887322	200677.654922	4.700000
363.000000	36.297901	1.886799	200551.695049	4.710000
364.000000	36.397907	1.886276	200425.735176	4.710000
365.000000	36.497780	1.887008	200602.078998	4.710000
366.000000	36.597836	1.886799	200551.695049	4.710000
367.000000	36.697767	1.887531	200728.038871	4.710000
368.000000	36.797797	1.886590	200501.311100	4.710000
369.000000	36.897761	1.886903	200576.887024	4.710000
370.000000	36.997790	1.886694	200526.503075	4.710000
371.000000	37.097853	1.887844	200803.614795	4.720000
372.000000	37.197772	1.886276	200425.735176	4.720000
373.000000	37.297809	1.887426	200702.846896	4.720000
374.000000	37.397735	1.886590	200501.311100	4.720000
375.000000	37.497787	1.886485	200476.119126	4.720000
376.000000	37.597801	1.886799	200551.695049	4.720000
377.000000	37.697798	1.887112	200627.270973	4.720000
378.000000	37.797757	1.887008	200602.078998	4.720000
379.000000	37.897734	1.887217	200652.462947	4.720000
